#class:dielectric
0.336 1.498976
0.338 1.498603
0.340 1.498238
0.342 1.497878
0.344 1.497525
0.346 1.497179
0.348 1.496838
0.350 1.496504
0.352 1.496175
0.354 1.495852
0.356 1.495534
0.358 1.495222
0.360 1.494915
0.362 1.494613
0.364 1.494316
0.366 1.494025
0.368 1.493738
0.370 1.493455
0.372 1.493177
0.374 1.492904
0.376 1.492635
0.378 1.492370
0.380 1.492110
0.382 1.491854
0.384 1.491601
0.386 1.491353
0.388 1.491108
0.390 1.490867
0.392 1.490629
0.394 1.490396
0.396 1.490165
0.398 1.489938
0.400 1.489714
0.402 1.489494
0.404 1.489276
0.406 1.489062
0.408 1.488850
0.410 1.488641
0.412 1.488435
0.414 1.488231
0.416 1.488031
0.418 1.487833
0.420 1.487638
0.422 1.487446
0.424 1.487256
0.426 1.487069
0.428 1.486884
0.430 1.486702
0.432 1.486522
0.434 1.486345
0.436 1.486170
0.438 1.485997
0.440 1.485827
0.442 1.485659
0.444 1.485493
0.446 1.485329
0.448 1.485167
0.450 1.485008
0.452 1.484851
0.454 1.484695
0.456 1.484542
0.458 1.484390
0.460 1.484241
0.462 1.484094
0.464 1.483948
0.466 1.483804
0.468 1.483662
0.470 1.483522
0.472 1.483383
0.474 1.483247
0.476 1.483111
0.478 1.482978
0.480 1.482846
0.482 1.482716
0.484 1.482588
0.486 1.482461
0.488 1.482335
0.490 1.482211
0.492 1.482089
0.494 1.481968
0.496 1.481848
0.498 1.481730
0.500 1.481613
0.502 1.481498
0.504 1.481384
0.506 1.481271
0.508 1.481160
0.510 1.481050
0.512 1.480941
0.514 1.480834
0.516 1.480727
0.518 1.480622
0.520 1.480518
0.522 1.480416
0.524 1.480314
0.526 1.480214
0.528 1.480115
0.530 1.480016
0.532 1.479919
0.534 1.479823
0.536 1.479729
0.538 1.479635
0.540 1.479542
0.542 1.479450
0.544 1.479359
0.546 1.479269
0.548 1.479181
0.550 1.479093
0.552 1.479006
0.554 1.478920
0.556 1.478835
0.558 1.478751
0.560 1.478667
0.562 1.478585
0.564 1.478503
0.566 1.478423
0.568 1.478343
0.570 1.478264
0.572 1.478186
0.574 1.478108
0.576 1.478032
0.578 1.477956
0.580 1.477881
0.582 1.477807
0.584 1.477733
0.586 1.477660
0.588 1.477588
0.590 1.477517
0.592 1.477447
0.594 1.477377
0.596 1.477308
0.598 1.477239
0.600 1.477171
0.602 1.477104
0.604 1.477038
0.606 1.476972
0.608 1.476907
0.610 1.476842
0.612 1.476778
0.614 1.476715
0.616 1.476652
0.618 1.476590
0.620 1.476529
0.622 1.476468
0.624 1.476408
0.626 1.476348
0.628 1.476289
0.630 1.476230
0.632 1.476172
0.634 1.476115
0.636 1.476058
0.638 1.476001
0.640 1.475946
0.642 1.475890
0.644 1.475835
0.646 1.475781
0.648 1.475727
0.650 1.475674
0.652 1.475621
0.654 1.475568
0.656 1.475517
0.658 1.475465
0.660 1.475414
0.662 1.475364
0.664 1.475314
0.666 1.475264
0.668 1.475215
0.670 1.475166
0.672 1.475118
0.674 1.475070
0.676 1.475022
0.678 1.474975
0.680 1.474929
0.682 1.474883
0.684 1.474837
0.686 1.474791
0.688 1.474746
0.690 1.474702
0.692 1.474657
0.694 1.474614
0.696 1.474570
0.698 1.474527
0.700 1.474484
0.702 1.474442
0.704 1.474400
0.706 1.474358
0.708 1.474317
0.710 1.474276
0.712 1.474235
0.714 1.474195
0.716 1.474155
0.718 1.474115
0.720 1.474076
0.722 1.474037
0.724 1.473998
0.726 1.473960
0.728 1.473922
0.730 1.473884
0.732 1.473847
0.734 1.473810
0.736 1.473773
0.738 1.473737
0.740 1.473700
0.742 1.473665
0.744 1.473629
0.746 1.473594
0.748 1.473559
0.750 1.473524
0.752 1.473489
0.754 1.473455
0.756 1.473421
0.758 1.473387
0.760 1.473354
0.762 1.473321
0.764 1.473288
0.766 1.473255
0.768 1.473223
0.770 1.473191
0.772 1.473159
0.774 1.473127
0.776 1.473096
0.778 1.473065
0.780 1.473034
0.782 1.473003
0.784 1.472973
0.786 1.472942
0.788 1.472912
0.790 1.472883
0.792 1.472853
0.794 1.472824
0.796 1.472795
0.798 1.472766
0.800 1.472737
0.802 1.472709
0.804 1.472680
0.806 1.472652
0.808 1.472625
0.810 1.472597
0.812 1.472570
0.814 1.472542
0.816 1.472515
0.818 1.472489
0.820 1.472462
0.822 1.472436
0.824 1.472409
0.826 1.472383
0.828 1.472357
0.830 1.472332
0.832 1.472306
0.834 1.472281
0.836 1.472256
0.838 1.472231
0.840 1.472206
0.842 1.472182
0.844 1.472157
0.846 1.472133
0.848 1.472109
0.850 1.472085
0.852 1.472061
0.854 1.472038
0.856 1.472014
0.858 1.471991
0.860 1.471968
0.862 1.471945
0.864 1.471922
0.866 1.471900
0.868 1.471877
0.870 1.471855
0.872 1.471833
0.874 1.471811
0.876 1.471789
0.878 1.471767
0.880 1.471746
0.882 1.471724
0.884 1.471703
0.886 1.471682
0.888 1.471661
0.890 1.471640
